# WL(A)	 Flux(ergs/cm**2/s/A)                                      
1151.000  4.270E-14
1151.200  4.270E-14
1151.400  4.270E-14
1151.600  4.270E-14
1151.800  4.270E-14
1152.000  4.197E-14
1152.200  4.108E-14
1152.400  4.002E-14
1152.600  3.903E-14
1152.800  3.791E-14
1153.000  3.686E-14
1153.200  3.582E-14
1153.400  3.468E-14
1153.600  3.365E-14
1153.800  3.286E-14
1154.000  3.213E-14
1154.200  3.150E-14
1154.400  3.086E-14
1154.600  3.032E-14
1154.800  2.977E-14
1155.000  2.930E-14
1155.200  2.889E-14
1155.400  2.847E-14
1155.600  2.813E-14
1155.800  2.780E-14
1156.000  2.751E-14
1156.200  2.725E-14
1156.400  2.697E-14
1156.600  2.670E-14
1156.800  2.639E-14
1157.000  2.608E-14
1157.200  2.579E-14
1157.400  2.545E-14
1157.600  2.514E-14
1157.800  2.479E-14
1158.000  2.444E-14
1158.200  2.410E-14
1158.400  2.374E-14
1158.600  2.341E-14
1158.800  2.304E-14
1159.000  2.272E-14
1159.200  2.241E-14
1159.400  2.208E-14
1159.600  2.179E-14
1159.800  2.149E-14
1160.000  2.121E-14
1160.200  2.096E-14
1160.400  2.070E-14
1160.600  2.048E-14
1160.800  2.025E-14
1161.000  2.005E-14
1161.200  1.987E-14
1161.400  1.971E-14
1161.600  1.957E-14
1161.800  1.944E-14
1162.000  1.934E-14
1162.200  1.925E-14
1162.400  1.916E-14
1162.600  1.910E-14
1162.800  1.904E-14
1163.000  1.898E-14
1163.200  1.894E-14
1163.400  1.890E-14
1163.600  1.887E-14
1163.800  1.884E-14
1164.000  1.881E-14
1164.200  1.878E-14
1164.400  1.875E-14
1164.600  1.871E-14
1164.800  1.867E-14
1165.000  1.862E-14
1165.200  1.857E-14
1165.400  1.850E-14
1165.600  1.843E-14
1165.800  1.835E-14
1166.000  1.826E-14
1166.200  1.817E-14
1166.400  1.806E-14
1166.600  1.795E-14
1166.800  1.783E-14
1167.000  1.771E-14
1167.200  1.759E-14
1167.400  1.745E-14
1167.600  1.733E-14
1167.800  1.720E-14
1168.000  1.707E-14
1168.200  1.695E-14
1168.400  1.683E-14
1168.600  1.671E-14
1168.800  1.660E-14
1169.000  1.649E-14
1169.200  1.640E-14
1169.400  1.630E-14
1169.600  1.622E-14
1169.800  1.614E-14
1170.000  1.608E-14
1170.200  1.602E-14
1170.400  1.596E-14
1170.600  1.592E-14
1170.800  1.588E-14
1171.000  1.585E-14
1171.200  1.582E-14
1171.400  1.580E-14
1171.600  1.578E-14
1171.800  1.576E-14
1172.000  1.574E-14
1172.200  1.573E-14
1172.400  1.570E-14
1172.600  1.568E-14
1172.800  1.565E-14
1173.000  1.561E-14
1173.200  1.557E-14
1173.400  1.552E-14
1173.600  1.546E-14
1173.800  1.539E-14
1174.000  1.532E-14
1174.200  1.524E-14
1174.400  1.514E-14
1174.600  1.504E-14
1174.800  7.849E-14
1175.000  2.548E-13
1175.200  1.473E-13
1175.400  2.505E-13
1175.600  2.888E-13
1175.800  7.679E-13
1176.000  2.347E-13
1176.200  2.347E-13
1176.400  2.800E-13
1176.600  1.356E-13
1176.800  1.339E-14
1177.000  1.323E-14
1177.200  1.308E-14
1177.400  1.292E-14
1177.600  1.278E-14
1177.800  1.262E-14
1178.000  1.248E-14
1178.200  1.235E-14
1178.400  1.222E-14
1178.600  1.211E-14
1178.800  1.199E-14
1179.000  1.189E-14
1179.200  1.180E-14
1179.400  1.171E-14
1179.600  1.163E-14
1179.800  1.155E-14
1180.000  1.148E-14
1180.200  1.142E-14
1180.400  1.137E-14
1180.600  1.132E-14
1180.800  1.128E-14
1181.000  1.124E-14
1181.200  1.121E-14
1181.400  1.118E-14
1181.600  1.116E-14
1181.800  1.114E-14
1182.000  1.113E-14
1182.200  1.111E-14
1182.400  1.110E-14
1182.600  1.109E-14
1182.800  1.109E-14
1183.000  1.108E-14
1183.200  1.108E-14
1183.400  1.107E-14
1183.600  1.106E-14
1183.800  1.106E-14
1184.000  1.105E-14
1184.200  1.104E-14
1184.400  1.102E-14
1184.600  1.101E-14
1184.800  1.099E-14
1185.000  1.096E-14
1185.200  1.094E-14
1185.400  1.090E-14
1185.600  1.087E-14
1185.800  1.082E-14
1186.000  1.077E-14
1186.200  1.073E-14
1186.400  1.067E-14
1186.600  1.061E-14
1186.800  1.055E-14
1187.000  1.048E-14
1187.200  1.042E-14
1187.400  1.034E-14
1187.600  1.027E-14
1187.800  1.019E-14
1188.000  1.012E-14
1188.200  1.005E-14
1188.400  9.973E-15
1188.600  9.907E-15
1188.800  9.838E-15
1189.000  9.776E-15
1189.200  9.719E-15
1189.400  9.662E-15
1189.600  9.615E-15
1189.800  9.568E-15
1190.000  9.528E-15
1190.200  9.493E-15
1190.400  6.868E-14
1190.600  5.980E-14
1190.800  9.410E-15
1191.000  9.391E-15
1191.200  9.375E-15
1191.400  9.361E-15
1191.600  9.351E-15
1191.800  9.343E-15
1192.000  9.338E-15
1192.200  9.334E-15
1192.400  9.332E-15
1192.600  9.335E-15
1192.800  9.343E-15
1193.000  9.356E-15
1193.200  9.373E-15
1193.400  3.339E-14
1193.600  9.423E-15
1193.800  9.458E-15
1194.000  9.495E-15
1194.200  9.536E-15
1194.400  5.459E-14
1194.600  8.874E-14
1194.800  9.700E-15
1195.000  9.762E-15
1195.200  9.827E-15
1195.400  9.903E-15
1195.600  9.976E-15
1195.800  1.006E-14
1196.000  1.015E-14
1196.200  1.023E-14
1196.400  1.031E-14
1196.600  1.039E-14
1196.800  1.047E-14
1197.000  1.053E-14
1197.200  1.059E-14
1197.400  5.214E-14
1197.600  1.071E-14
1197.800  1.076E-14
1198.000  1.080E-14
1198.200  1.084E-14
1198.400  1.087E-14
1198.600  1.090E-14
1198.800  1.092E-14
1199.000  1.094E-14
1199.200  1.096E-14
1199.400  1.097E-14
1199.600  4.383E-14
1199.800  3.634E-14
1200.000  1.099E-14
1200.200  1.100E-14
1200.400  3.847E-14
1200.600  1.101E-14
1200.800  3.977E-14
1201.000  4.579E-14
1201.200  1.104E-14
1201.400  1.105E-14
1201.600  1.106E-14
1201.800  1.108E-14
1202.000  1.110E-14
1202.200  1.113E-14
1202.400  1.116E-14
1202.600  1.119E-14
1202.800  1.123E-14
1203.000  1.128E-14
1203.200  1.134E-14
1203.400  1.142E-14
1203.600  1.150E-14
1203.800  1.162E-14
1204.000  1.175E-14
1204.200  1.189E-14
1204.400  1.208E-14
1204.600  1.227E-14
1204.800  1.251E-14
1205.000  1.275E-14
1205.200  1.300E-14
1205.400  1.330E-14
1205.600  1.358E-14
1205.800  1.390E-14
1206.000  1.424E-14
1206.200  1.457E-14
1206.400  8.642E-13
1206.600  1.647E-12
1206.800  4.848E-13
1207.000  6.704E-14
1207.200  1.635E-14
1207.400  1.670E-14
1207.600  1.698E-14
1207.800  1.729E-14
1208.000  1.755E-14
1208.200  1.777E-14
1208.400  1.800E-14
1208.600  1.819E-14
1208.800  1.836E-14
1209.000  1.852E-14
1209.200  1.865E-14
1209.400  1.878E-14
1209.600  1.887E-14
1209.800  1.897E-14
1210.000  6.919E-14
1210.200  1.911E-14
1210.400  1.917E-14
1210.600  5.914E-14
1210.800  7.137E-14
1211.000  6.053E-14
1211.200  6.661E-14
1211.400  8.875E-14
1211.600  8.599E-14
1211.800  8.991E-14
1212.000  9.856E-14
1212.200  1.235E-13
1212.400  1.150E-13
1212.600  1.317E-13
1212.800  1.784E-13
1213.000  1.837E-13
1213.200  2.117E-13
1213.400  2.366E-13
1213.600  2.866E-13
1213.800  3.215E-13
1214.000  4.176E-13
1214.200  5.492E-13
1214.400  7.555E-13
1214.600  1.219E-12
1214.800  1.916E-12
1215.000  4.469E-12
1215.200  1.085E-11
1215.400  1.810E-11
1215.600  1.774E-11
1215.800  4.650E-12
1216.000  2.485E-11
1216.200  1.813E-11
1216.400  5.842E-12
1216.600  2.678E-12
1216.800  1.417E-12
1217.000  9.616E-13
1217.200  6.881E-13
1217.400  5.008E-13
1217.600  3.783E-13
1217.800  2.963E-13
1218.000  2.241E-13
1218.200  2.438E-13
1218.400  4.554E-13
1218.600  3.189E-13
1218.800  1.124E-13
1219.000  8.978E-14
1219.200  6.750E-14
1219.400  9.037E-14
1219.600  7.952E-14
1219.800  6.989E-14
1220.000  6.309E-14
1220.200  6.941E-14
1220.400  1.454E-14
1220.600  6.600E-14
1220.800  7.226E-14
1221.000  5.562E-14
1221.200  5.100E-14
1221.400  6.305E-14
1221.600  5.717E-14
1221.800  5.911E-14
1222.000  5.445E-14
1222.200  5.504E-14
1222.400  5.900E-14
1222.600  4.363E-14
1222.800  4.569E-14
1223.000  1.250E-14
1223.200  1.228E-14
1223.400  1.202E-14
1223.600  4.261E-14
1223.800  1.146E-14
1224.000  1.117E-14
1224.200  1.086E-14
1224.400  1.053E-14
1224.600  1.024E-14
1224.800  9.914E-15
1225.000  9.607E-15
1225.200  9.316E-15
1225.400  9.014E-15
1225.600  8.749E-15
1225.800  8.458E-15
1226.000  8.204E-15
1226.200  7.961E-15
1226.400  7.715E-15
1226.600  7.505E-15
1226.800  7.282E-15
1227.000  3.412E-14
1227.200  6.919E-15
1227.400  6.749E-15
1227.600  6.604E-15
1227.800  6.467E-15
1228.000  6.346E-15
1228.200  6.237E-15
1228.400  6.131E-15
1228.600  6.038E-15
1228.800  5.945E-15
1229.000  5.867E-15
1229.200  5.798E-15
1229.400  5.731E-15
1229.600  5.675E-15
1229.800  5.618E-15
1230.000  5.572E-15
1230.200  5.531E-15
1230.400  5.491E-15
1230.600  5.458E-15
1230.800  5.426E-15
1231.000  5.400E-15
1231.200  5.379E-15
1231.400  5.357E-15
1231.600  5.341E-15
1231.800  5.324E-15
1232.000  5.309E-15
1232.200  5.296E-15
1232.400  5.281E-15
1232.600  5.266E-15
1232.800  5.250E-15
1233.000  5.233E-15
1233.200  5.215E-15
1233.400  5.194E-15
1233.600  5.174E-15
1233.800  5.149E-15
1234.000  5.125E-15
1234.200  5.101E-15
1234.400  5.074E-15
1234.600  5.048E-15
1234.800  5.017E-15
1235.000  4.988E-15
1235.200  4.958E-15
1235.400  4.924E-15
1235.600  4.892E-15
1235.800  4.857E-15
1236.000  4.823E-15
1236.200  4.791E-15
1236.400  4.756E-15
1236.600  4.724E-15
1236.800  4.691E-15
1237.000  4.660E-15
1237.200  4.631E-15
1237.400  4.600E-15
1237.600  4.573E-15
1237.800  4.543E-15
1238.000  4.515E-15
1238.200  4.490E-15
1238.400  1.846E-14
1238.600  3.039E-14
1238.800  4.610E-13
1239.000  4.407E-13
1239.200  3.988E-14
1239.400  4.341E-15
1239.600  4.321E-15
1239.800  4.298E-15
1240.000  4.277E-15
1240.200  4.259E-15
1240.400  4.238E-15
1240.600  4.220E-15
1240.800  4.200E-15
1241.000  4.181E-15
1241.200  4.163E-15
1241.400  4.144E-15
1241.600  4.126E-15
1241.800  4.107E-15
1242.000  4.174E-14
1242.200  2.965E-14
1242.400  4.052E-15
1242.600  1.599E-14
1242.800  2.328E-13
1243.000  2.313E-13
1243.200  1.972E-14
1243.400  3.963E-15
1243.600  3.947E-15
1243.800  3.928E-15
1244.000  3.909E-15
1244.200  3.891E-15
1244.400  3.870E-15
1244.600  3.852E-15
1244.800  3.831E-15
1245.000  3.811E-15
1245.200  1.616E-14
1245.400  3.770E-15
1245.600  3.750E-15
1245.800  3.728E-15
1246.000  3.705E-15
1246.200  3.684E-15
1246.400  3.660E-15
1246.600  3.638E-15
1246.800  1.400E-14
1247.000  1.730E-14
1247.200  1.317E-14
1247.400  1.516E-14
1247.600  3.514E-15
1247.800  3.488E-15
1248.000  1.511E-14
1248.200  1.319E-14
1248.400  3.414E-15
1248.600  3.391E-15
1248.800  3.366E-15
1249.000  3.343E-15
1249.200  3.322E-15
1249.400  1.828E-14
1249.600  3.283E-15
1249.800  3.264E-15
1250.000  3.247E-15
1250.200  3.232E-15
1250.400  1.809E-14
1250.600  2.500E-14
1250.800  3.192E-15
1251.000  3.182E-15
1251.200  2.059E-14
1251.400  3.164E-15
1251.600  3.158E-15
1251.800  3.151E-15
1252.000  3.146E-15
1252.200  3.142E-15
1252.400  3.139E-15
1252.600  3.136E-15
1252.800  3.134E-15
1253.000  3.132E-15
1253.200  3.131E-15
1253.400  3.129E-15
1253.600  2.724E-14
1253.800  5.363E-14
1254.000  4.743E-14
1254.200  3.132E-15
1254.400  3.134E-15
1254.600  1.636E-14
1254.800  3.140E-15
1255.000  3.144E-15
1255.200  3.148E-15
1255.400  1.325E-14
1255.600  3.158E-15
1255.800  3.164E-15
1256.000  3.169E-15
1256.200  3.174E-15
1256.400  1.772E-14
1256.600  4.642E-14
1256.800  3.188E-15
1257.000  3.192E-15
1257.200  3.196E-15
1257.400  3.198E-15
1257.600  2.544E-14
1257.800  3.200E-15
1258.000  3.200E-15
1258.200  3.198E-15
1258.400  3.195E-15
1258.600  9.926E-15
1258.800  4.521E-14
1259.000  3.614E-14
1259.200  3.166E-15
1259.400  1.370E-14
1259.600  7.799E-14
1259.800  3.128E-15
1260.000  3.114E-15
1260.200  3.101E-15
1260.400  6.765E-14
1260.600  6.091E-14
1260.800  3.423E-14
1261.000  3.046E-15
1261.200  3.033E-15
1261.400  3.020E-15
1261.600  1.408E-14
1261.800  2.274E-14
1262.000  2.987E-15
1262.200  2.978E-15
1262.400  2.970E-15
1262.600  2.963E-15
1262.800  2.956E-15
1263.000  2.950E-15
1263.200  2.946E-15
1263.400  2.941E-15
1263.600  2.938E-15
1263.800  2.934E-15
1264.000  2.930E-15
1264.200  2.927E-15
1264.400  2.923E-15
1264.600  5.716E-14
1264.800  2.270E-13
1265.000  1.335E-13
1265.200  8.545E-14
1265.400  2.905E-15
1265.600  2.901E-15
1265.800  2.896E-15
1266.000  2.891E-15
1266.200  2.886E-15
1266.400  4.007E-14
1266.600  4.007E-14
1266.800  2.871E-15
1267.000  2.866E-15
1267.200  2.861E-15
1267.400  2.856E-15
1267.600  2.718E-14
1267.800  1.506E-14
1268.000  2.838E-15
1268.200  2.833E-15
1268.400  2.826E-15
1268.600  2.820E-15
1268.800  2.813E-15
1269.000  2.806E-15
1269.200  2.799E-15
1269.400  2.792E-15
1269.600  2.785E-15
1269.800  2.777E-15
1270.000  2.770E-15
1270.200  2.762E-15
1270.400  2.754E-15
1270.600  2.747E-15
1270.800  1.820E-14
1271.000  2.731E-15
1271.200  2.725E-15
1271.400  2.718E-15
1271.600  2.712E-15
1271.800  2.706E-15
1272.000  2.701E-15
1272.200  2.696E-15
1272.400  2.691E-15
1272.600  2.688E-15
1272.800  2.684E-15
1273.000  2.681E-15
1273.200  2.678E-15
1273.400  2.676E-15
1273.600  2.674E-15
1273.800  2.673E-15
1274.000  2.671E-15
1274.200  1.320E-14
1274.400  2.670E-15
1274.600  2.670E-15
1274.800  2.086E-14
1275.000  5.262E-14
1275.200  2.774E-14
1275.400  2.675E-15
1275.600  2.676E-15
1275.800  2.679E-15
1276.000  2.681E-15
1276.200  2.684E-15
1276.400  3.007E-14
1276.600  2.689E-15
1276.800  1.139E-14
1277.000  2.694E-15
1277.200  1.970E-14
1277.400  2.066E-14
1277.600  2.746E-14
1277.800  2.341E-14
1278.000  1.541E-14
1278.200  2.703E-15
1278.400  2.703E-15
1278.600  2.702E-15
1278.800  2.701E-15
1279.000  2.699E-15
1279.200  1.907E-14
1279.400  2.339E-14
1279.600  1.884E-14
1279.800  2.679E-15
1280.000  2.044E-14
1280.200  1.309E-14
1280.400  1.841E-14
1280.600  1.791E-14
1280.800  1.234E-14
1281.000  1.399E-14
1281.200  2.616E-15
1281.400  2.606E-15
1281.600  2.596E-15
1281.800  2.587E-15
1282.000  2.578E-15
1282.200  2.570E-15
1282.400  2.562E-15
1282.600  2.555E-15
1282.800  2.548E-15
1283.000  2.542E-15
1283.200  2.538E-15
1283.400  2.533E-15
1283.600  2.530E-15
1283.800  2.526E-15
1284.000  2.524E-15
1284.200  2.522E-15
1284.400  2.521E-15
1284.600  2.519E-15
1284.800  2.519E-15
1285.000  2.518E-15
1285.200  2.518E-15
1285.400  2.518E-15
1285.600  2.518E-15
1285.800  2.518E-15
1286.000  2.518E-15
1286.200  2.518E-15
1286.400  2.518E-15
1286.600  2.519E-15
1286.800  2.519E-15
1287.000  2.520E-15
1287.200  2.521E-15
1287.400  2.523E-15
1287.600  2.525E-15
1287.800  2.527E-15
1288.000  2.255E-14
1288.200  2.933E-14
1288.400  5.439E-14
1288.600  5.439E-14
1288.800  1.620E-14
1289.000  1.188E-14
1289.200  2.553E-15
1289.400  2.558E-15
1289.600  2.564E-15
1289.800  2.570E-15
1290.000  2.848E-14
1290.200  1.168E-14
1290.400  2.589E-15
1290.600  2.596E-15
1290.800  2.603E-15
1291.000  2.611E-15
1291.200  2.617E-15
1291.400  9.717E-15
1291.600  2.631E-15
1291.800  2.638E-15
1292.000  2.645E-15
1292.200  2.651E-15
1292.400  2.658E-15
1292.600  2.664E-15
1292.800  2.670E-15
1293.000  2.676E-15
1293.200  2.682E-15
1293.400  2.688E-15
1293.600  2.693E-15
1293.800  2.699E-15
1294.000  2.705E-15
1294.200  2.710E-15
1294.400  2.715E-15
1294.600  2.953E-14
1294.800  1.685E-14
1295.000  2.728E-15
1295.200  2.732E-15
1295.400  2.736E-15
1295.600  1.182E-14
1295.800  2.235E-14
1296.000  2.746E-15
1296.200  1.572E-14
1296.400  2.753E-15
1296.600  2.757E-15
1296.800  2.452E-14
1297.000  1.337E-14
1297.200  2.769E-15
1297.400  2.774E-15
1297.600  2.778E-15
1297.800  2.783E-15
1298.000  2.788E-15
1298.200  2.793E-15
1298.400  2.800E-15
1298.600  2.806E-15
1298.800  2.015E-14
1299.000  8.818E-14
1299.200  5.424E-14
1299.400  2.847E-15
1299.600  2.860E-15
1299.800  2.877E-15
1300.000  2.894E-15
1300.200  2.910E-15
1300.400  2.930E-15
1300.600  2.948E-15
1300.800  2.970E-15
1301.000  5.844E-14
1301.200  2.175E-14
1301.400  3.034E-15
1301.600  3.054E-15
1301.800  3.078E-15
1302.000  6.014E-14
1302.200  6.223E-13
1302.400  6.099E-13
1302.600  3.158E-15
1302.800  3.175E-15
1303.000  3.190E-15
1303.200  1.343E-14
1303.400  2.892E-14
1303.600  1.517E-14
1303.800  3.219E-15
1304.000  3.219E-15
1304.200  3.219E-15
1304.400  9.469E-14
1304.600  6.111E-14
1304.800  1.047E-12
1305.000  1.153E-12
1305.200  2.549E-14
1305.400  3.170E-15
1305.600  3.156E-15
1305.800  3.140E-15
1306.000  1.279E-12
1306.200  1.298E-12
1306.400  3.091E-15
1306.600  3.074E-15
1306.800  3.056E-15
1307.000  3.038E-15
1307.200  3.022E-15
1307.400  3.005E-15
1307.600  2.990E-15
1307.800  2.974E-15
1308.000  2.960E-15
1308.200  2.947E-15
1308.400  2.933E-15
1308.600  2.922E-15
1308.800  2.910E-15
1309.000  2.899E-15
1309.200  5.485E-14
1309.400  1.247E-13
1309.600  2.801E-14
1309.800  2.858E-15
1310.000  2.848E-15
1310.200  2.839E-15
1310.400  2.829E-15
1310.600  2.078E-14
1310.800  2.819E-14
1311.000  2.802E-15
1311.200  2.795E-15
1311.400  7.142E-14
1311.600  2.186E-14
1311.800  2.773E-15
1312.000  3.055E-14
1312.200  2.760E-15
1312.400  2.039E-14
1312.600  2.745E-15
1312.800  2.737E-15
1313.000  2.729E-15
1313.200  2.720E-15
1313.400  1.417E-14
1313.600  3.165E-14
1313.800  2.690E-15
1314.000  2.679E-15
1314.200  2.668E-15
1314.400  2.655E-15
1314.600  2.641E-15
1314.800  2.626E-15
1315.000  2.610E-15
1315.200  2.595E-15
1315.400  2.576E-15
1315.600  2.558E-15
1315.800  2.538E-15
1316.000  2.265E-14
1316.200  2.503E-15
1316.400  2.486E-15
1316.600  3.230E-14
1316.800  1.453E-14
1317.000  2.438E-15
1317.200  2.425E-15
1317.400  2.412E-15
1317.600  2.400E-15
1317.800  2.389E-15
1318.000  2.379E-15
1318.200  2.370E-15
1318.400  2.362E-15
1318.600  2.356E-15
1318.800  2.349E-15
1319.000  6.619E-14
1319.200  1.096E-14
1319.400  2.338E-15
1319.600  2.336E-15
1319.800  2.334E-15
1320.000  2.333E-15
1320.200  2.333E-15
1320.400  2.332E-15
1320.600  2.332E-15
1320.800  2.333E-15
1321.000  2.333E-15
1321.200  2.334E-15
1321.400  2.334E-15
1321.600  2.336E-15
1321.800  2.338E-15
1322.000  2.340E-15
1322.200  2.343E-15
1322.400  2.347E-15
1322.600  2.352E-15
1322.800  2.358E-15
1323.000  2.365E-15
1323.200  2.372E-15
1323.400  2.381E-15
1323.600  2.322E-14
1323.800  2.400E-15
1324.000  1.794E-14
1324.200  2.423E-15
1324.400  2.436E-15
1324.600  2.450E-15
1324.800  2.465E-15
1325.000  2.481E-15
1325.200  2.497E-15
1325.400  2.514E-15
1325.600  2.531E-15
1325.800  2.548E-15
1326.000  2.565E-15
1326.200  2.581E-15
1326.400  2.598E-15
1326.600  1.068E-14
1326.800  1.431E-14
1327.000  2.645E-15
1327.200  2.659E-15
1327.400  2.674E-15
1327.600  2.686E-15
1327.800  2.700E-15
1328.000  2.712E-15
1328.200  2.724E-15
1328.400  2.735E-15
1328.600  2.745E-15
1328.800  4.012E-14
1329.000  4.118E-14
1329.200  4.271E-14
1329.400  2.782E-15
1329.600  3.868E-14
1329.800  3.571E-14
1330.000  2.805E-15
1330.200  2.812E-15
1330.400  2.820E-15
1330.600  2.826E-15
1330.800  2.832E-15
1331.000  2.838E-15
1331.200  2.843E-15
1331.400  2.849E-15
1331.600  2.855E-15
1331.800  2.861E-15
1332.000  2.867E-15
1332.200  2.873E-15
1332.400  2.879E-15
1332.600  2.885E-15
1332.800  2.892E-15
1333.000  2.898E-15
1333.200  2.903E-15
1333.400  2.910E-15
1333.600  2.916E-15
1333.800  2.922E-15
1334.000  2.927E-15
1334.200  1.473E-14
1334.400  3.350E-13
1334.600  9.815E-13
1334.800  7.972E-13
1335.000  3.056E-14
1335.200  2.961E-15
1335.400  4.180E-14
1335.600  1.177E-12
1335.800  2.013E-12
1336.000  6.794E-13
1336.200  3.989E-14
1336.400  2.966E-15
1336.600  2.962E-15
1336.800  2.957E-15
1337.000  2.950E-15
1337.200  2.942E-15
1337.400  2.932E-15
1337.600  2.921E-15
1337.800  2.907E-15
1338.000  2.892E-15
1338.200  2.876E-15
1338.400  2.857E-15
1338.600  2.839E-15
1338.800  2.817E-15
1339.000  2.794E-15
1339.200  2.772E-15
1339.400  2.747E-15
1339.600  2.723E-15
1339.800  2.698E-15
1340.000  2.675E-15
1340.200  2.652E-15
1340.400  2.628E-15
1340.600  2.607E-15
1340.800  2.584E-15
1341.000  2.564E-15
1341.200  2.544E-15
1341.400  2.525E-15
1341.600  2.508E-15
1341.800  2.491E-15
1342.000  2.476E-15
1342.200  2.464E-15
1342.400  2.451E-15
1342.600  2.441E-15
1342.800  2.431E-15
1343.000  2.423E-15
1343.200  2.416E-15
1343.400  2.410E-15
1343.600  2.405E-15
1343.800  2.400E-15
1344.000  2.397E-15
1344.200  2.395E-15
1344.400  2.393E-15
1344.600  2.392E-15
1344.800  2.391E-15
1345.000  8.641E-15
1345.200  2.393E-15
1345.400  2.394E-15
1345.600  2.396E-15
1345.800  2.398E-15
1346.000  2.400E-15
1346.200  2.403E-15
1346.400  2.406E-15
1346.600  2.410E-15
1346.800  2.414E-15
1347.000  1.101E-14
1347.200  1.319E-14
1347.400  2.429E-15
1347.600  2.435E-15
1347.800  2.441E-15
1348.000  2.448E-15
1348.200  2.455E-15
1348.400  2.462E-15
1348.600  2.470E-15
1348.800  2.477E-15
1349.000  2.484E-15
1349.200  2.490E-15
1349.400  1.976E-14
1349.600  1.654E-14
1349.800  2.506E-15
1350.000  2.509E-15
